B.E.(eV)           Raw Intensity       Peak Sum            Background          Peak 1              Peak 2              Peak 3              difference
 956.5              2610.2 
 956.4              2605.6 
 956.3              2586.8 
 956.2              2583.6 
 956.1              2589 
 956                2567.4 
 955.9              2584 
 955.8              2563.4 
 955.7              2550.8 
 955.6              2550.6 
 955.5              2590.8 
 955.4              2552.8 
 955.3              2542.4 
 955.2              2571.2 
 955.1              2555.2 
 955                2565.4 
 954.9              2558.8 
 954.8              2561.4 
 954.7              2565 
 954.6              2570 
 954.5              2532.2 
 954.4              2528.6 
 954.3              2509.2 
 954.2              2538.2 
 954.1              2552.6 
 954                2563 
 953.9              2530.8 
 953.8              2545 
 953.7              2544.6 
 953.6              2545 
 953.5              2539 
 953.4              2540.4 
 953.3              2531.6 
 953.2              2531.2 
 953.1              2534.2 
 953                2509.6 
 952.9              2499.4 
 952.8              2508 
 952.7              2521 
 952.6              2557.2 
 952.5              2527.4 
 952.4              2539.2 
 952.3              2498.4 
 952.2              2498.2 
 952.1              2537.2 
 952                2554.6 
 951.9              2520.4 
 951.8              2500.6 
 951.7              2537 
 951.6              2535.6 
 951.5              2510.4 
 951.4              2514.2 
 951.3              2506.8 
 951.2              2505.6 
 951.1              2513.2 
 951                2512.8 
 950.9              2529.2 
 950.8              2531.4 
 950.7              2534 
 950.6              2519.2 
 950.5              2528.4 
 950.4              2511.6 
 950.3              2514.4 
 950.2              2521.2 
 950.1              2523.6 
 950                2515.8              2521.741            2518.035            2518.458            2520.601            2518.753           -5.940674 
 949.9              2530.8              2521.604            2517.797            2518.223            2520.452            2518.523            9.196289 
 949.8              2537.8              2521.471            2517.559            2517.988            2520.309            2518.293            16.32886 
 949.7              2536.8              2521.344            2517.321            2517.753            2520.17             2518.063            15.45605 
 949.6              2516.4              2521.222            2517.083            2517.518            2520.037            2517.832           -4.82251 
 949.5              2512                2521.106            2516.844            2517.283            2519.909            2517.602           -9.106201 
 949.4              2506.6              2520.996            2516.604            2517.047            2519.787            2517.371           -14.396 
 949.3              2504.6              2520.892            2516.364            2516.81             2519.67             2517.139           -16.29175 
 949.2              2506.4              2520.794            2516.123            2516.573            2519.561            2516.906           -14.39429 
 949.1              2501.2              2520.704            2515.88             2516.334            2519.458            2516.673           -19.50391 
 949                2510.2              2520.621            2515.637            2516.094            2519.362            2516.438           -10.4209 
 948.9              2511.8              2520.547            2515.393            2515.854            2519.275            2516.204           -8.74707 
 948.8              2522.2              2520.482            2515.148            2515.613            2519.198            2515.969            1.717529 
 948.7              2511                2520.429            2514.904            2515.372            2519.131            2515.733           -9.428711 
 948.6              2523.2              2520.386            2514.658            2515.13             2519.074            2515.497            2.813721 
 948.5              2514.6              2520.356            2514.412            2514.888            2519.031            2515.26            -5.756348 
 948.4              2499.8              2520.34             2514.165            2514.646            2519.001            2515.024           -20.54028 
 948.3              2522.8              2520.339            2513.917            2514.402            2518.985            2514.786            2.461182 
 948.2              2537.4              2520.354            2513.669            2514.158            2518.986            2514.548            17.04614 
 948.1              2534.6              2520.388            2513.421            2513.914            2519.005            2514.311            14.2124 
 948                2475.4              2520.442            2513.173            2513.67             2519.045            2514.073           -45.04224 
 947.9              2517.4              2520.517            2512.923            2513.425            2519.105            2513.835           -3.117432 
 947.8              2523.2              2520.617            2512.673            2513.179            2519.189            2513.595            2.582764 
 947.7              2499.4              2520.744            2512.423            2512.933            2519.301            2513.356           -21.34424 
 947.6              2534.8              2520.901            2512.171            2512.685            2519.442            2513.116            13.89893 
 947.5              2538.8              2521.093            2511.919            2512.438            2519.617            2512.876            17.70752 
 947.4              2521                2521.323            2511.668            2512.191            2519.831            2512.637           -0.3227539 
 947.3              2504.8              2521.597            2511.416            2511.944            2520.088            2512.397           -16.79663 
 947.2              2541.4              2521.919            2511.164            2511.696            2520.393            2512.157            19.48071 
 947.1              2553.8              2522.299            2510.911            2511.448            2520.756            2511.917            31.50122 
 947                2550                2522.745            2510.659            2511.202            2521.184            2511.678            27.25488 
 946.9              2522.4              2523.268            2510.408            2510.955            2521.689            2511.439           -0.8676758 
 946.8              2512.8              2523.88             2510.156            2510.708            2522.283            2511.201           -11.08008 
 946.7              2549.8              2524.597            2509.904            2510.461            2522.982            2510.962            25.20288 
 946.6              2525.4              2525.441            2509.652            2510.214            2523.806            2510.724           -4.077148E-02 
 946.5              2502.2              2526.432            2509.4              2509.967            2524.779            2510.487           -24.23242 
 946.4              2498                2527.601            2509.147            2509.719            2525.928            2510.248           -29.60059 
 946.3              2547.6              2528.981            2508.893            2509.471            2527.288            2510.009            18.61914 
 946.2              2549.8              2530.612            2508.64             2509.223            2528.899            2509.77             19.18774 
 946.1              2511.4              2532.543            2508.387            2508.975            2530.809            2509.532           -21.14331 
 946                2565.6              2534.822            2508.134            2508.727            2533.067            2509.295            30.77832 
 945.9              2565.8              2537.507            2507.881            2508.48             2535.731            2509.058            28.29272 
 945.8              2569.8              2540.665            2507.629            2508.234            2538.866            2508.823            29.1355 
 945.7              2551.4              2544.353            2507.379            2507.99             2542.533            2508.588            7.046875 
 945.6              2528.8              2548.642            2507.129            2507.745            2546.799            2508.355           -19.84229 
 945.5              2536                2553.588            2506.879            2507.501            2551.722            2508.123           -17.58765 
 945.4              2558.2              2559.246            2506.629            2507.257            2557.357            2507.89            -1.046387 
 945.3              2562                2565.663            2506.38             2507.014            2563.75             2507.659           -3.663086 
 945.2              2560.8              2572.847            2506.132            2506.772            2570.909            2507.429           -12.04663 
 945.1              2586.4              2580.784            2505.884            2506.531            2578.822            2507.2              5.615479 
 945                2607.2              2589.387            2505.638            2506.291            2587.399            2506.973            17.8125 
 944.9              2597.6              2598.496            2505.395            2506.054            2596.482            2506.749           -0.8962402 
 944.8              2594.4              2607.836            2505.153            2505.819            2605.795            2506.527           -13.43579 
 944.7              2617.2              2616.966            2504.913            2505.585            2614.898            2506.308            0.2338867 
 944.6              2635.6              2625.319            2504.676            2505.355            2623.224            2506.091            10.28149 
 944.5              2633                2632.186            2504.441            2505.127            2630.063            2505.878            0.8137207 
 944.4              2629.2              2636.865            2504.209            2504.902            2634.713            2505.668           -7.664551 
 944.3              2626.4              2638.784            2503.981            2504.681            2636.603            2505.462           -12.38379 
 944.2              2655.6              2637.673            2503.755            2504.462            2635.463            2505.258            17.92676 
 944.1              2641.6              2633.651            2503.532            2504.246            2631.409            2505.059            7.949219 
 944                2625                2627.185            2503.313            2504.034            2624.913            2504.864           -2.185303 
 943.9              2597.4              2618.95             2503.096            2503.825            2616.646            2504.671           -21.55005 
 943.8              2585.6              2609.656            2502.882            2503.618            2607.32             2504.482           -24.05615 
 943.7              2604.8              2599.95             2502.668            2503.413            2597.58             2504.294            4.850098 
 943.6              2608.4              2590.31             2502.458            2503.21             2587.906            2504.109            18.09009 
 943.5              2601.4              2581.085            2502.249            2503.009            2578.647            2503.927            20.31494 
 943.4              2599.4              2572.477            2502.042            2502.81             2570.004            2503.748            26.92261 
 943.3              2580.6              2564.592            2501.838            2502.614            2562.082            2503.571            16.00806 
 943.2              2549.4              2557.48             2501.635            2502.419            2554.933            2503.397           -8.080078 
 943.1              2560                2551.128            2501.432            2502.225            2548.543            2503.224            8.871826 
 943                2534.8              2545.513            2501.23             2502.032            2542.89             2503.052           -10.71338 
 942.9              2516.8              2540.581            2501.029            2501.839            2537.918            2502.881           -23.78076 
 942.8              2530.2              2536.269            2500.827            2501.646            2533.565            2502.711           -6.068604 
 942.7              2529.4              2532.518            2500.625            2501.453            2529.773            2502.542           -3.118164 
 942.6              2518.4              2529.26             2500.423            2501.261            2526.473            2502.374           -10.8606 
 942.5              2520                2526.436            2500.221            2501.068            2523.604            2502.206           -6.435547 
 942.4              2527                2523.983            2500.019            2500.875            2521.107            2502.039            3.01709 
 942.3              2537.8              2521.847            2499.817            2500.682            2518.926            2501.873            15.95288 
 942.2              2518.8              2519.983            2499.615            2500.49             2517.015            2501.708           -1.183105 
 942.1              2521.4              2518.346            2499.412            2500.298            2515.329            2501.543            3.054199 
 942                2541.4              2516.901            2499.21             2500.105            2513.835            2501.38             24.49927 
 941.9              2510.2              2515.617            2499.008            2499.914            2512.501            2501.218           -5.416992 
 941.8              2499.4              2514.468            2498.805            2499.722            2511.3              2501.057           -15.06763 
 941.7              2497                2513.432            2498.602            2499.529            2510.211            2500.896           -16.43164 
 941.6              2511.2              2512.491            2498.398            2499.336            2509.216            2500.736           -1.291504 
 941.5              2546                2511.633            2498.193            2499.142            2508.302            2500.576            34.3667 
 941.4              2530                2510.847            2497.989            2498.949            2507.458            2500.418            19.15283 
 941.3              2508.4              2510.122            2497.785            2498.757            2506.674            2500.261           -1.721924 
 941.2              2508.8              2509.451            2497.58             2498.564            2505.941            2500.106           -0.6506348 
 941.1              2481.6              2508.826            2497.375            2498.37             2505.254            2499.952           -27.22559 
 941                2487                2508.242            2497.169            2498.176            2504.606            2499.798           -21.24243 
 940.9              2518.6              2507.695            2496.961            2497.981            2503.993            2499.644            10.90479 
 940.8              2479.4              2507.182            2496.754            2497.786            2503.411            2499.492           -27.78174 
 940.7              2465.2              2506.698            2496.545            2497.589            2502.857            2499.341           -41.49756 
 940.6              2460.8              2506.24             2496.334            2497.392            2502.326            2499.189           -45.4397 
 940.5              2461.4              2505.805            2496.121            2497.192            2501.818            2499.038           -44.40552 
 940.4              2497.4              2505.393            2495.907            2496.991            2501.328            2498.887           -7.993408 
 940.3              2481.2              2505.001            2495.691            2496.79             2500.857            2498.738           -23.80127 
 940.2              2489.6              2504.628            2495.475            2496.587            2500.402            2498.589           -15.02808 
 940.1              2499.6              2504.273            2495.257            2496.384            2499.962            2498.442           -4.672852 
 940                2503.8              2503.934            2495.039            2496.18             2499.535            2498.297           -0.1342773 
 939.9              2509                2503.611            2494.82             2495.976            2499.122            2498.154            5.388672 
 939.8              2506.4              2503.303            2494.601            2495.771            2498.72             2498.013            3.09668 
 939.7              2483                2503.009            2494.381            2495.567            2498.328            2497.875           -20.00903 
 939.6              2501.2              2502.728            2494.16             2495.362            2497.947            2497.739           -1.528076 
 939.5              2510                2502.459            2493.938            2495.156            2497.573            2497.605            7.54126 
 939.4              2474.6              2502.202            2493.716            2494.95             2497.208            2497.475           -27.60205 
 939.3              2486.8              2501.956            2493.492            2494.743            2496.85             2497.347           -15.15625 
 939.2              2477.2              2501.721            2493.267            2494.535            2496.499            2497.222           -24.52124 
 939.1              2483                2501.496            2493.041            2494.327            2496.153            2497.099           -18.49585 
 939                2479.2              2501.281            2492.814            2494.117            2495.812            2496.98            -22.0813 
 938.9              2479.6              2501.076            2492.586            2493.907            2495.477            2496.864           -21.47607 
 938.8              2490.6              2500.881            2492.356            2493.696            2495.145            2496.752           -10.28052 
 938.7              2493                2500.695            2492.126            2493.484            2494.818            2496.644           -7.695068 
 938.6              2491.8              2500.519            2491.894            2493.272            2494.495            2496.541           -8.718994 
 938.5              2496.4              2500.353            2491.662            2493.06             2494.175            2496.442           -3.952881 
 938.4              2503                2500.197            2491.429            2492.847            2493.86             2496.348            2.803467 
 938.3              2515                2500.051            2491.195            2492.634            2493.547            2496.26             14.94946 
 938.2              2505.6              2499.915            2490.961            2492.421            2493.238            2496.179            5.685059 
 938.1              2515                2499.79             2490.727            2492.208            2492.932            2496.104            15.20996 
 938                2512.2              2499.676            2490.493            2491.995            2492.63             2496.036            12.52393 
 937.9              2508.2              2499.573            2490.258            2491.783            2492.33             2495.976            8.627197 
 937.8              2494.4              2499.481            2490.023            2491.571            2492.032            2495.923           -5.081055 
 937.7              2467.2              2499.4              2489.787            2491.359            2491.737            2495.878           -32.19971 
 937.6              2458.8              2499.329            2489.55             2491.145            2491.443            2495.84            -40.52881 
 937.5              2498.2              2499.269            2489.311            2490.931            2491.149            2495.81            -1.068604 
 937.4              2495                2499.22             2489.071            2490.716            2490.857            2495.789           -4.220215 
 937.3              2475.6              2499.184            2488.831            2490.501            2490.567            2495.777           -23.58398 
 937.2              2521                2499.159            2488.589            2490.286            2490.277            2495.774            21.84058 
 937.1              2503.6              2499.149            2488.347            2490.071            2489.99             2495.782            4.451172 
 937                2504.2              2499.152            2488.105            2489.857            2489.704            2495.802            5.04834 
 936.9              2503.2              2499.168            2487.863            2489.643            2489.419            2495.832            4.031738 
 936.8              2507                2499.199            2487.62             2489.429            2489.135            2495.875            7.80127 
 936.7              2516.2              2499.244            2487.377            2489.215            2488.853            2495.93             16.95605 
 936.6              2509.8              2499.305            2487.134            2489.002            2488.572            2495.998            10.49536 
 936.5              2476.8              2499.381            2486.89             2488.79             2488.292            2496.079           -22.58081 
 936.4              2484.2              2499.472            2486.646            2488.577            2488.013            2496.173           -15.27197 
 936.3              2500.6              2499.58             2486.4              2488.365            2487.734            2496.281            1.020508 
 936.2              2482.2              2499.703            2486.154            2488.152            2487.455            2496.404           -17.50269 
 936.1              2514.2              2499.843            2485.907            2487.939            2487.177            2496.541            14.35693 
 936                2504                2500                2485.66             2487.728            2486.9              2496.693            3.999512 
 935.9              2506.8              2500.176            2485.413            2487.517            2486.624            2496.862            6.624023 
 935.8              2492.8              2500.37             2485.166            2487.306            2486.348            2497.046           -7.56958 
 935.7              2495.8              2500.581            2484.917            2487.096            2486.073            2497.247           -4.78125 
 935.6              2508.2              2500.812            2484.669            2486.887            2485.798            2497.464            7.387939 
 935.5              2506.6              2501.061            2484.42             2486.678            2485.524            2497.699            5.538818 
 935.4              2493.2              2501.33             2484.171            2486.471            2485.25             2497.951           -8.130127 
 935.3              2535                2501.618            2483.921            2486.263            2484.977            2498.22             33.38184 
 935.2              2513                2501.926            2483.672            2486.058            2484.705            2498.507            11.07373 
 935.1              2495.6              2502.255            2483.423            2485.854            2484.434            2498.813           -6.654785 
 935                2502                2502.602            2483.174            2485.651            2484.163            2499.135           -0.6020508 
 934.9              2482.6              2502.969            2482.924            2485.448            2483.893            2499.475           -20.36841 
 934.8              2499                2503.354            2482.674            2485.247            2483.622            2499.832           -4.354248 
 934.7              2525.2              2503.758            2482.423            2485.046            2483.352            2500.206            21.44189 
 934.6              2520.6              2504.182            2482.172            2484.848            2483.082            2500.596            16.41846 
 934.5              2519.6              2504.623            2481.922            2484.651            2482.814            2501.002            14.97729 
 934.4              2483.2              2505.082            2481.672            2484.456            2482.546            2501.424           -21.88159 
 934.3              2519.4              2505.556            2481.422            2484.262            2482.278            2501.859            13.84399 
 934.2              2512                2506.046            2481.171            2484.07             2482.011            2502.307            5.954346 
 934.1              2505.6              2506.549            2480.921            2483.88             2481.745            2502.767           -0.9489746 
 934                2515.6              2507.064            2480.671            2483.692            2481.479            2503.236            8.535889 
 933.9              2523.6              2507.59             2480.421            2483.506            2481.213            2503.713            16.0105 
 933.8              2500                2508.124            2480.171            2483.322            2480.948            2504.196           -8.123779 
 933.7              2501.6              2508.663            2479.921            2483.14             2480.684            2504.681           -7.062744 
 933.6              2491.4              2509.205            2479.671            2482.961            2480.42             2505.166           -17.80469 
 933.5              2530.6              2509.745            2479.421            2482.783            2480.156            2505.647            20.85522 
 933.4              2522.8              2510.281            2479.172            2482.609            2479.893            2506.123            12.51855 
 933.3              2511.2              2510.811            2478.922            2482.438            2479.631            2506.587            0.3886719 
 933.2              2514                2511.329            2478.673            2482.269            2479.369            2507.037            2.671387 
 933.1              2507                2511.83             2478.425            2482.103            2479.108            2507.468           -4.830322 
 933                2530                2512.311            2478.176            2481.941            2478.848            2507.875            17.68945 
 932.9              2562.6              2512.766            2477.928            2481.782            2478.588            2508.252            49.83447 
 932.8              2549.6              2513.192            2477.682            2481.628            2478.331            2508.598            36.40796 
 932.7              2513                2513.583            2477.438            2481.479            2478.075            2508.904           -0.5830078 
 932.6              2505.2              2513.935            2477.193            2481.333            2477.82             2509.167           -8.734619 
 932.5              2520.4              2514.24             2476.949            2481.192            2477.565            2509.381            6.159912 
 932.4              2470.4              2514.496            2476.705            2481.054            2477.311            2509.54            -44.0957 
 932.3              2485                2514.697            2476.46             2480.921            2477.056            2509.64            -29.69678 
 932.2              2530.4              2514.839            2476.215            2480.79             2476.801            2509.678            15.56055 
 932.1              2516.6              2514.922            2475.971            2480.665            2476.547            2509.651            1.678223 
 932                2501.4              2514.942            2475.727            2480.546            2476.294            2509.556           -13.54199 
 931.9              2503.8              2514.897            2475.483            2480.431            2476.042            2509.391           -11.09717 
 931.8              2501.4              2514.788            2475.24             2480.322            2475.789            2509.156           -13.3877 
 931.7              2530.6              2514.613            2474.997            2480.218            2475.537            2508.85             15.98755 
 931.6              2493.6              2514.375            2474.754            2480.121            2475.286            2508.475           -20.77441 
 931.5              2500.4              2514.074            2474.512            2480.03             2475.036            2508.031           -13.67407 
 931.4              2520.8              2513.714            2474.269            2479.946            2474.785            2507.522            7.085938 
 931.3              2491                2513.299            2474.028            2479.869            2474.536            2506.949           -22.29883 
 931.2              2493.4              2512.831            2473.786            2479.799            2474.286            2506.317           -19.43115 
 931.1              2500.6              2512.316            2473.544            2479.737            2474.037            2505.63            -11.71631 
 931                2515.4              2511.759            2473.302            2479.684            2473.788            2504.893            3.640625 
 930.9              2521                2511.166            2473.061            2479.639            2473.54             2504.11             9.834229 
 930.8              2522.6              2510.541            2472.821            2479.604            2473.292            2503.287            12.05884 
 930.7              2533.2              2509.892            2472.582            2479.58             2473.046            2502.429            23.30762 
 930.6              2512.8              2509.224            2472.343            2479.568            2472.801            2501.542            3.575684 
 930.5              2490.6              2508.543            2472.106            2479.567            2472.557            2500.631           -17.94287 
 930.4              2506.2              2507.853            2471.868            2479.577            2472.313            2499.699           -1.652588 
 930.3              2496.4              2507.159            2471.631            2479.601            2472.069            2498.751           -10.75903 
 930.2              2498.2              2506.467            2471.394            2479.638            2471.826            2497.791           -8.267334 
 930.1              2514.4              2505.782            2471.157            2479.689            2471.583            2496.824            8.617676 
 930                2529                2505.109            2470.921            2479.757            2471.341            2495.853            23.89087 
 929.9              2521.4              2504.453            2470.686            2479.841            2471.1              2494.883            16.94727 
 929.8              2513.4              2503.817            2470.452            2479.945            2470.861            2493.916            9.583008 
 929.7              2490                2503.206            2470.219            2480.067            2470.622            2492.954           -13.20557 
 929.6              2512.4              2502.622            2469.986            2480.21             2470.383            2491.999            9.778076 
 929.5              2511.8              2502.069            2469.753            2480.375            2470.146            2491.055            9.730713 
 929.4              2514.8              2501.552            2469.521            2480.564            2469.908            2490.122            13.24805 
 929.3              2527.6              2501.073            2469.291            2480.78             2469.672            2489.202            26.52686 
 929.2              2502.8              2500.637            2469.061            2481.023            2469.438            2488.298            2.163086 
 929.1              2493                2500.245            2468.832            2481.297            2469.204            2487.408           -7.244873 
 929                2493.2              2499.901            2468.603            2481.602            2468.97             2486.535           -6.700928 
 928.9              2485.6              2499.608            2468.374            2481.942            2468.737            2485.678           -14.00806 
 928.8              2481.6              2499.37             2468.146            2482.32             2468.503            2484.838           -17.76978 
 928.7              2493.6              2499.19             2467.917            2482.738            2468.271            2484.016           -5.589844 
 928.6              2491.6              2499.072            2467.689            2483.201            2468.038            2483.211           -7.472168 
 928.5              2482                2499.021            2467.461            2483.713            2467.805            2482.425           -17.02148 
 928.4              2502.2              2499.042            2467.233            2484.279            2467.573            2481.656            3.157959 
 928.3              2504.4              2499.14             2467.006            2484.904            2467.342            2480.906            5.26001 
 928.2              2485.2              2499.321            2466.78             2485.594            2467.111            2480.175           -14.12061 
 928.1              2536.8              2499.592            2466.553            2486.357            2466.881            2479.461            37.20825 
 928                2504                2499.961            2466.329            2487.2              2466.652            2478.766            4.039063 
 927.9              2472.4              2500.437            2466.105            2488.133            2466.424            2478.089           -28.03735 
 927.8              2504.6              2501.031            2465.881            2489.167            2466.196            2477.429            3.569336 
 927.7              2510.6              2501.754            2465.657            2490.313            2465.969            2476.786            8.845703 
 927.6              2513.4              2502.624            2465.435            2491.59             2465.743            2476.161            10.77612 
 927.5              2492.4              2503.655            2465.214            2493.012            2465.518            2475.552           -11.25513 
 927.4              2522                2504.869            2464.993            2494.602            2465.294            2474.959            17.13062 
 927.3              2539.4              2506.293            2464.773            2496.386            2465.071            2474.383            33.10693 
 927.2              2534.2              2507.954            2464.556            2498.393            2464.85             2473.823            26.24561 
 927.1              2520.4              2509.889            2464.34             2500.66             2464.631            2473.279            10.51074 
 927                2517.8              2512.135            2464.125            2503.223            2464.413            2472.75             5.665283 
 926.9              2503.4              2514.738            2463.912            2506.131            2464.196            2472.236           -11.33838 
 926.8              2534.6              2517.755            2463.7              2509.439            2463.981            2471.735            16.84473 
 926.7              2556                2521.243            2463.49             2513.206            2463.767            2471.249            34.75684 
 926.6              2513.6              2525.275            2463.281            2517.505            2463.556            2470.777           -11.67456 
 926.5              2558.2              2529.918            2463.074            2522.404            2463.346            2470.317            28.28174 
 926.4              2553                2535.259            2462.87             2527.989            2463.138            2469.871            17.74097 
 926.3              2521.6              2541.388            2462.668            2534.353            2462.933            2469.438           -19.78833 
 926.2              2523.2              2548.389            2462.467            2541.576            2462.729            2469.017           -25.18872 
 926.1              2579                2556.362            2462.268            2549.764            2462.528            2468.607            22.6377 
 926                2596.4              2565.393            2462.072            2558.999            2462.329            2468.209            31.00684 
 925.9              2593.6              2575.572            2461.88             2569.374            2462.134            2467.824            18.02783 
 925.8              2565.6              2586.984            2461.691            2580.973            2461.942            2467.451           -21.38428 
 925.7              2575.8              2599.671            2461.505            2593.838            2461.754            2467.089           -23.87061 
 925.6              2614.2              2613.673            2461.323            2608.012            2461.568            2466.738            0.5266113 
 925.5              2650.2              2628.955            2461.144            2623.457            2461.387            2466.398            21.24487 
 925.4              2678.8              2645.432            2460.971            2640.091            2461.211            2466.071            33.36792 
 925.3              2690.4              2662.926            2460.803            2657.735            2461.042            2465.756            27.47412 
 925.2              2690.6              2681.087            2460.642            2676.039            2460.878            2465.454            9.512939 
 925.1              2674                2699.44             2460.488            2694.53             2460.721            2465.165           -25.43994 
 925                2688.6              2717.264            2460.339            2712.485            2460.57             2464.887           -28.66406 
 924.9              2734.8              2733.68             2460.197            2729.027            2460.426            2464.621            1.120117 
 924.8              2714.8              2747.661            2460.063            2743.13             2460.289            2464.368           -32.86133 
 924.7              2753                2758.128            2459.935            2753.712            2460.159            2464.127           -5.127686 
 924.6              2769.6              2764.171            2459.816            2759.867            2460.038            2463.899            5.428955 
 924.5              2731                2765.197            2459.706            2761                2459.925            2463.684           -34.19727 
 924.4              2766.6              2761.088            2459.603            2756.992            2459.82             2463.48             5.512451 
 924.3              2792.4              2752.212            2459.508            2748.216            2459.723            2463.29             40.1875 
 924.2              2745.2              2739.365            2459.423            2735.463            2459.636            2463.112            5.835205 
 924.1              2701.2              2723.547            2459.346            2719.737            2459.557            2462.946           -22.34741 
 924                2705.2              2705.845            2459.276            2702.122            2459.485            2462.79            -0.6447754 
 923.9              2689.4              2687.219            2459.213            2683.58             2459.42             2462.645            2.181396 
 923.8              2702.8              2668.448            2459.156            2664.892            2459.361            2462.509            34.35156 
 923.7              2681.8              2650.15             2459.107            2646.672            2459.309            2462.382            31.6499 
 923.6              2632.8              2632.705            2459.063            2629.303            2459.264            2462.265            9.472656E-02 
 923.5              2642.8              2616.385            2459.024            2613.056            2459.223            2462.155            26.41504 
 923.4              2618.4              2601.315            2458.991            2598.056            2459.188            2462.053            17.08521 
 923.3              2609                2587.536            2458.962            2584.345            2459.157            2461.958            21.46387 
 923.2              2572.2              2575.061            2458.937            2571.936            2459.13             2461.869           -2.860596 
 923.1              2547.6              2563.827            2458.915            2560.766            2459.107            2461.785           -16.22705 
 923                2538.4              2553.781            2458.896            2550.781            2459.086            2461.706           -15.38086 
 922.9              2523                2544.83             2458.879            2541.891            2459.067            2461.631           -21.83008 
 922.8              2531.6              2536.88             2458.864            2533.999            2459.05             2461.56            -5.280029 
 922.7              2523.6              2529.847            2458.851            2527.021            2459.036            2461.493           -6.24707 
 922.6              2469.6              2523.629            2458.84             2520.857            2459.023            2461.429           -54.02856 
 922.5              2485.6              2518.141            2458.829            2515.423            2459.01             2461.367           -32.54126 
 922.4              2515.2              2513.297            2458.819            2510.629            2458.998            2461.307            1.903076 
 922.3              2517.6              2509.015            2458.81             2506.397            2458.988            2461.25             8.585205 
 922.2              2511.4              2505.229            2458.803            2502.659            2458.979            2461.197            6.171143 
 922.1              2489.4              2501.87             2458.798            2499.347            2458.972            2461.146           -12.46973 
 922                2475.4              2498.883            2458.793            2496.406            2458.967            2461.097           -23.4834 
 921.9              2476.8              2496.217            2458.789            2493.784            2458.961            2461.051           -19.41675 
 921.8              2468.4              2493.826            2458.786            2491.436            2458.956            2461.005           -25.42603 
 921.7              2485.2              2491.675            2458.782            2489.328            2458.951            2460.961           -6.475342 
 921.6              2475.6              2489.732            2458.78             2487.425            2458.947            2460.92            -14.13159 
 921.5              2477.4              2487.969            2458.778            2485.702            2458.943            2460.879           -10.56885 
 921.4              2462.4              2486.363            2458.776            2484.135            2458.94             2460.841           -23.96338 
 921.3              2456.2              2484.894            2458.775            2482.703            2458.937            2460.803           -28.69385 
 921.2              2456.8              2483.546            2458.773            2481.392            2458.934            2460.766           -26.74609 
 921.1              2483.6              2482.305            2458.771            2480.186            2458.931            2460.73             1.29541 
 921                2478.4              2481.159            2458.771            2479.076            2458.929            2460.695           -2.759277 
 920.9              2471.2              2480.099            2458.77             2478.05             2458.927            2460.662           -8.899414 
 920.8              2481.8              2479.116            2458.77             2477.1              2458.926            2460.631            2.684326 
 920.7              2485                2478.201            2458.771            2476.218            2458.925            2460.6              6.798584 
 920.6              2461                2477.35             2458.772            2475.398            2458.925            2460.571           -16.3501 
 920.5              2468.4              2476.556            2458.774            2474.635            2458.926            2460.543           -8.156006 
 920.4              2461.2              2475.813            2458.775            2473.922            2458.926            2460.516           -14.61353 
 920.3              2460.6              2475.118            2458.777            2473.256            2458.927            2460.489           -14.51758 
 920.2              2440.4              2474.466            2458.779            2472.633            2458.927            2460.464           -34.06616 
 920.1              2468.2              2473.853            2458.78             2472.048            2458.927            2460.438           -5.652588 
 920                2473.8              2473.277            2458.782            2471.499            2458.928            2460.414            0.5234375 
 919.9              2435                2472.734            2458.784            2470.984            2458.928            2460.39            -37.73438 
 919.8              2438.4              2472.222            2458.785            2470.498            2458.929            2460.366           -33.82251 
 919.7              2464.6              2471.739            2458.786            2470.04             2458.928            2460.343           -7.138672 
 919.6              2438.8              2471.282            2458.787            2469.608            2458.928            2460.32            -32.48193 
 919.5              2463                2470.849            2458.787            2469.2              2458.927            2460.297           -7.849365 
 919.4              2469.8              2470.439            2458.788            2468.814            2458.927            2460.274           -0.6394043 
 919.3              2467.8              2470.052            2458.789            2468.45             2458.927            2460.253           -2.251465 
 919.2              2456.6              2469.684            2458.79             2468.105            2458.926            2460.232           -13.0835 
 919.1              2437.2              2469.334            2458.791            2467.778            2458.926            2460.211           -32.13403 
 919                2441                2469.002            2458.791            2467.467            2458.926            2460.191           -28.00171 
 918.9              2463.2              2468.684            2458.791            2467.172            2458.924            2460.17            -5.484375 
 918.8              2510.6              2468.383            2458.791            2466.891            2458.924            2460.151            42.21729 
 918.7              2487.6              2468.097            2458.793            2466.625            2458.924            2460.133            19.50342 
 918.6              2445                2467.824            2458.795            2466.374            2458.925            2460.115           -22.82446 
 918.5              2444                2467.564            2458.797            2466.133            2458.926            2460.099           -23.56421 
 918.4              2444.4              2467.316            2458.798            2465.904            2458.927            2460.082           -22.91577 
 918.3              2442.2              2467.077            2458.799            2465.685            2458.927            2460.065           -24.87744 
 918.2              2438.4              2466.849            2458.8              2465.475            2458.926            2460.048           -28.44946 
 918.1              2457.4              2466.63             2458.8              2465.274            2458.925            2460.031           -9.230225 
 918                2458.8              2466.42             2458.8              2465.083            2458.924            2460.014           -7.620361 
 917.9              2468.8 
 917.8              2455.2 
 917.7              2470 
 917.6              2469.2 
 917.5              2494.2 
 917.4              2485 
 917.3              2463 
 917.2              2489.4 
 917.1              2465.4 
 917                2474.6 
 916.9              2502.4 
 916.8              2491.4 
 916.7              2466 
 916.6              2466 
 916.5              2476 
 916.4              2472.2 
 916.3              2481.4 
 916.2              2440.6 
 916.1              2454.2 
 916                2477 
 915.9              2468.4 
 915.8              2455.8 
 915.7              2500.2 
 915.6              2482.4 
 915.5              2464.6 
 915.4              2474.6 
 915.3              2460.4 
 915.2              2455.2 
 915.1              2455 
 915                2448.6 
 914.9              2463.8 
 914.8              2460.2 
 914.7              2474.4 
 914.6              2467.2 
 914.5              2452.2 
 914.4              2458.8 
 914.3              2463.8 
 914.2              2448.2 
 914.1              2448.8 
 914                2445.2 
 913.9              2438.8 
 913.8              2442 
 913.7              2422.6 
 913.6              2431 
 913.5              2437.2 
 913.4              2436.2 
 913.3              2446.2 
 913.2              2441.6 
 913.1              2455 
 913                2426.8 
 912.9              2386.4 
 912.8              2407 
 912.7              2418.8 
 912.6              2456.4 
 912.5              2473.2 
 912.4              2438.8 
 912.3              2425.2 
 912.2              2420.4 
 912.1              2449.4 
 912                2455.4 
 911.9              2444.75 
 911.8              2440.333 
 911.7              2410.5 
 911.6              2418.5 
 911.5              2482.5 
